# Column 1: counter ID
# Column 2: Photon energy (PrimEx setting)
# Column 3: plus error
# Column 4: minus error (same magnitude as plus error)
1  8.859221   1.430552  -1.430552  
2  8.850240   1.431956  -1.431956  
3  8.841242   1.433371  -1.433371  
4  8.832233   1.434798  -1.434798  
5  8.823213   1.436235  -1.436235  
6  8.814175   1.437685  -1.437685  
7  8.805120   1.439147  -1.439147  
8  8.796059   1.440619  -1.440619  
9  8.786980   1.442104  -1.442104  
10  8.777879   1.443602  -1.443602  
11  8.768765   1.445112  -1.445112  
12  8.759641   1.446634  -1.446634  
13  8.750500   1.448169  -1.448169  
14  8.741341   1.449717  -1.449717  
15  8.732164   1.451278  -1.451278  
16  8.722977   1.452852  -1.452852  
17  8.713776   1.454439  -1.454439  
18  8.704554   1.456041  -1.456041  
19  8.695313   1.457657  -1.457657  
20  8.686063   1.459285  -1.459285  
21  8.676793   1.460928  -1.460928  
22  8.667507   1.462586  -1.462586  
23  8.658204   1.464259  -1.464259  
24  8.648883   1.465946  -1.465946  
25  8.639545   1.467648  -1.467648  
26  8.630195   1.469365  -1.469365  
27  8.620828   1.471097  -1.471097  
28  8.611438   1.472846  -1.472846  
29  8.602030   1.474611  -1.474611  
30  8.592611   1.476391  -1.476391  
31  8.583169   1.478188  -1.478188  
32  8.573709   1.480001  -1.480001  
33  8.564239   1.481831  -1.481831  
34  8.554745   1.483678  -1.483678  
35  8.545227   1.485544  -1.485544  
36  8.535693   1.487427  -1.487427  
37  8.526146   1.489326  -1.489326  
38  8.516583   1.491244  -1.491244  
39  8.506997   1.493180  -1.493180  
40  8.497388   1.495136  -1.495136  
41  8.487761   1.497111  -1.497111  
42  8.478116   1.499105  -1.499105  
43  8.468454   1.501118  -1.501118  
44  8.458776   1.503150  -1.503150  
45  8.449074   1.505204  -1.505204  
46  8.439348   1.507278  -1.507278  
47  8.429605   1.509373  -1.509373  
48  8.419847   1.511488  -1.511488  
49  8.410064   1.513625  -1.513625  
50  8.400264   1.515784  -1.515784  
51  8.390446   1.517964  -1.517964  
52  8.380605   1.520167  -1.520167  
53  8.370741   1.522394  -1.522394  
54  8.360855   1.524644  -1.524644  
55  8.350951   1.526917  -1.526917  
56  8.341029   1.529213  -1.529213  
57  8.331085   1.531534  -1.531534  
58  8.321116   1.533880  -1.533880  
59  8.311127   1.536252  -1.536252  
60  8.301118   1.538648  -1.538648  
61  8.291087   1.541071  -1.541071  
62  8.281033   1.543520  -1.543520  
63  8.270955   1.545997  -1.545997  
64  8.260855   1.548501  -1.548501  
65  8.250737   1.551032  -1.551032  
66  8.240597   1.553591  -1.553591  
67  8.230433   1.556180  -1.556180  
68  8.220244   1.558798  -1.558798  
69  8.210034   1.561445  -1.561445  
70  8.199806   1.564122  -1.564122  
71  8.189556   1.566829  -1.566829  
72  8.179276   1.569569  -1.569569  
73  8.168975   1.572341  -1.572341  
74  8.158648   1.575146  -1.575146  
75  8.148299   1.577983  -1.577983  
76  8.137927   1.580854  -1.580854  
77  8.127533   1.583759  -1.583759  
78  8.117115   1.586698  -1.586698  
79  8.106674   1.589673  -1.589673  
80  8.096210   1.592684  -1.592684  
81  8.085722   1.595731  -1.595731  
82  8.075206   1.598818  -1.598818  
83  8.064667   1.601941  -1.601941  
84  8.054104   1.605104  -1.605104  
85  8.043513   1.608307  -1.608307  
86  8.032899   1.611550  -1.611550  
87  8.022261   1.614834  -1.614834  
88  8.011600   1.618159  -1.618159  
89  8.000910   1.621528  -1.621528  
90  7.990191   1.624942  -1.624942  
91  7.979450   1.628399  -1.628399  
92  7.968686   1.631901  -1.631901  
93  7.957898   1.635448  -1.635448  
94  7.947081   1.639043  -1.639043  
95  7.936236   1.642688  -1.642688  
96  7.925367   1.646380  -1.646380  
97  7.914475   1.650121  -1.650121  
98  7.903556   1.653914  -1.653914  
99  7.892606   1.657761  -1.657761  
100  7.881628   1.661661  -1.661661  
101  7.870626   1.665614  -1.665614  
102  7.859602   1.669621  -1.669621  
